# Pbox   1500.00  14 4095  0.0     0    1.0000 0.31830     3
# VJ3.0  pw (us)  pwr  pwrf  dres  dmf  dcyc   B1max (kHz)  Stype
# ---------------------------------------------------------------
# Pxsim 0.0015000 284.1433 0.000 17361.1 0.0000000 0.0000000 0.00
# data: pw (s) B1max (Hz) status sw (Hz) T1 (s)   T2 (s) RDC (Hz)
# ---------------------------------------------------------------
# Pbox.inp data :
# ~~~~~~~~~~~~~~~~~~~~~~~~~~~Waves~~~~~~~~~~~~~~~~~~~~~~~~~~~~~~~~~~
#   shape   bw(/pw)   ofs  st  ph  fla  trev  d1  d2   d0   wrp  php
# ~~~~~~~~~~~~~~~~~~~~~~~~~~~~~~~~~~~~~~~~~~~~~~~~~~~~~~~~~~~~~~~~~~
# { sinc 0.0015000 }
#
# type      = r          mod       = n          dres      = n         
# steps     = n          stepsize  = n          attn      = i         
# refofs    = n          wrap      = n          sfrq      = n         
# sucyc     = d          reps      = 2          header    = y         
# bscor     = n          pad1      = n          pad2      = n         
# bsim      = n          T1        = n          T2        = n         
# rdc       = n          dcyc      = n          sw        = 17361.111111
#
# RF Calibration Data :  ref_pwr   = 55         ref_pw90  = 7.00
# ~~~~~~~~~~~~~~~~~~~~~
###
# ------------------- Shape data ------------------
# pwtot      = 0.0015000 (total pw, s)
# power      = 14 (power level, dB)
# pwrf       = 4095 (fine power)
# B1max      = 0.3183 (B1max, kHz)
# B1rms      = 0.1904 (B1[RMS], kHz)
# nptot      = 200 (total number of steps)
# stepsize   = 7.50 (length of a single step, us)
# maxamp     = 914.1 (max amplitude)
# ------------------------------------------------- 
#      phase      amplitude   length     gate 
# ------------------------------------------------- 
        0.00      1023.00      0.0        0
       0.000        0.000      1.0        0
       0.000        8.279      1.0        1
       0.000       17.739      1.0        1
       0.000       27.376      1.0        1
       0.000       37.187      1.0        1
       0.000       47.167      1.0        1
       0.000       57.311      1.0        1
       0.000       67.616      1.0        1
       0.000       78.078      1.0        1
       0.000       88.691      1.0        1
       0.000       99.450      1.0        1
       0.000      110.352      1.0        1
       0.000      121.390      1.0        1
       0.000      132.560      1.0        1
       0.000      143.857      1.0        1
       0.000      155.275      1.0        1
       0.000      166.809      1.0        1
       0.000      178.453      1.0        1
       0.000      190.202      1.0        1
       0.000      202.050      1.0        1
       0.000      213.991      1.0        1
       0.000      226.019      1.0        1
       0.000      238.128      1.0        1
       0.000      250.312      1.0        1
       0.000      262.566      1.0        1
       0.000      274.882      1.0        1
       0.000      287.254      1.0        1
       0.000      299.676      1.0        1
       0.000      312.142      1.0        1
       0.000      324.645      1.0        1
       0.000      337.179      1.0        1
       0.000      349.736      1.0        1
       0.000      362.311      1.0        1
       0.000      374.896      1.0        1
       0.000      387.486      1.0        1
       0.000      400.072      1.0        1
       0.000      412.649      1.0        1
       0.000      425.209      1.0        1
       0.000      437.745      1.0        1
       0.000      450.252      1.0        1
       0.000      462.722      1.0        1
       0.000      475.148      1.0        1
       0.000      487.523      1.0        1
       0.000      499.841      1.0        1
       0.000      512.094      1.0        1
       0.000      524.276      1.0        1
       0.000      536.380      1.0        1
       0.000      548.400      1.0        1
       0.000      560.327      1.0        1
       0.000      572.157      1.0        1
       0.000      583.882      1.0        1
       0.000      595.495      1.0        1
       0.000      606.990      1.0        1
       0.000      618.360      1.0        1
       0.000      629.599      1.0        1
       0.000      640.701      1.0        1
       0.000      651.658      1.0        1
       0.000      662.466      1.0        1
       0.000      673.117      1.0        1
       0.000      683.605      1.0        1
       0.000      693.925      1.0        1
       0.000      704.070      1.0        1
       0.000      714.034      1.0        1
       0.000      723.813      1.0        1
       0.000      733.399      1.0        1
       0.000      742.788      1.0        1
       0.000      751.973      1.0        1
       0.000      760.951      1.0        1
       0.000      769.714      1.0        1
       0.000      778.259      1.0        1
       0.000      786.580      1.0        1
       0.000      794.672      1.0        1
       0.000      802.531      1.0        1
       0.000      810.152      1.0        1
       0.000      817.530      1.0        1
       0.000      824.662      1.0        1
       0.000      831.542      1.0        1
       0.000      838.167      1.0        1
       0.000      844.533      1.0        1
       0.000      850.636      1.0        1
       0.000      856.472      1.0        1
       0.000      862.039      1.0        1
       0.000      867.332      1.0        1
       0.000      872.348      1.0        1
       0.000      877.086      1.0        1
       0.000      881.541      1.0        1
       0.000      885.711      1.0        1
       0.000      889.594      1.0        1
       0.000      893.187      1.0        1
       0.000      896.488      1.0        1
       0.000      899.496      1.0        1
       0.000      902.207      1.0        1
       0.000      904.622      1.0        1
       0.000      906.738      1.0        1
       0.000      908.554      1.0        1
       0.000      910.069      1.0        1
       0.000      911.282      1.0        1
       0.000      912.193      1.0        1
       0.000      912.800      1.0        1
       0.000      913.104      2.0        1
       0.000      912.800      1.0        1
       0.000      912.193      1.0        1
       0.000      911.282      1.0        1
       0.000      910.069      1.0        1
       0.000      908.554      1.0        1
       0.000      906.738      1.0        1
       0.000      904.622      1.0        1
       0.000      902.207      1.0        1
       0.000      899.496      1.0        1
       0.000      896.488      1.0        1
       0.000      893.187      1.0        1
       0.000      889.594      1.0        1
       0.000      885.711      1.0        1
       0.000      881.541      1.0        1
       0.000      877.086      1.0        1
       0.000      872.348      1.0        1
       0.000      867.332      1.0        1
       0.000      862.039      1.0        1
       0.000      856.472      1.0        1
       0.000      850.636      1.0        1
       0.000      844.533      1.0        1
       0.000      838.167      1.0        1
       0.000      831.542      1.0        1
       0.000      824.662      1.0        1
       0.000      817.530      1.0        1
       0.000      810.152      1.0        1
       0.000      802.531      1.0        1
       0.000      794.672      1.0        1
       0.000      786.580      1.0        1
       0.000      778.259      1.0        1
       0.000      769.714      1.0        1
       0.000      760.951      1.0        1
       0.000      751.973      1.0        1
       0.000      742.788      1.0        1
       0.000      733.399      1.0        1
       0.000      723.813      1.0        1
       0.000      714.034      1.0        1
       0.000      704.070      1.0        1
       0.000      693.925      1.0        1
       0.000      683.605      1.0        1
       0.000      673.117      1.0        1
       0.000      662.466      1.0        1
       0.000      651.658      1.0        1
       0.000      640.701      1.0        1
       0.000      629.599      1.0        1
       0.000      618.360      1.0        1
       0.000      606.990      1.0        1
       0.000      595.495      1.0        1
       0.000      583.882      1.0        1
       0.000      572.157      1.0        1
       0.000      560.327      1.0        1
       0.000      548.400      1.0        1
       0.000      536.380      1.0        1
       0.000      524.276      1.0        1
       0.000      512.094      1.0        1
       0.000      499.841      1.0        1
       0.000      487.523      1.0        1
       0.000      475.148      1.0        1
       0.000      462.722      1.0        1
       0.000      450.252      1.0        1
       0.000      437.745      1.0        1
       0.000      425.209      1.0        1
       0.000      412.649      1.0        1
       0.000      400.072      1.0        1
       0.000      387.486      1.0        1
       0.000      374.896      1.0        1
       0.000      362.311      1.0        1
       0.000      349.736      1.0        1
       0.000      337.179      1.0        1
       0.000      324.645      1.0        1
       0.000      312.142      1.0        1
       0.000      299.676      1.0        1
       0.000      287.254      1.0        1
       0.000      274.882      1.0        1
       0.000      262.566      1.0        1
       0.000      250.312      1.0        1
       0.000      238.128      1.0        1
       0.000      226.019      1.0        1
       0.000      213.991      1.0        1
       0.000      202.050      1.0        1
       0.000      190.202      1.0        1
       0.000      178.453      1.0        1
       0.000      166.809      1.0        1
       0.000      155.275      1.0        1
       0.000      143.857      1.0        1
       0.000      132.560      1.0        1
       0.000      121.390      1.0        1
       0.000      110.352      1.0        1
       0.000       99.450      1.0        1
       0.000       88.691      1.0        1
       0.000       78.078      1.0        1
       0.000       67.616      1.0        1
       0.000       57.311      1.0        1
       0.000       47.167      1.0        1
       0.000       37.187      1.0        1
       0.000       27.376      1.0        1
       0.000       17.739      1.0        1
       0.000        8.279      1.0        1
       0.000        0.000      1.0        0
