# Pbox   1500.00  16 4095  0.0     0    1.0000 0.31492     3
# VJ3.0  pw (us)  pwr  pwrf  dres  dmf  dcyc   B1max (kHz)  Stype
# ---------------------------------------------------------------
# Pxsim 0.0015000 284.1433 0.000 17361.1 0.0000000 0.0000000 0.00
# data: pw (s) B1max (Hz) status sw (Hz) T1 (s)   T2 (s) RDC (Hz)
# ---------------------------------------------------------------
# Pbox.inp data :
# ~~~~~~~~~~~~~~~~~~~~~~~~~~~Waves~~~~~~~~~~~~~~~~~~~~~~~~~~~~~~~~~~
#   shape   bw(/pw)   ofs  st  ph  fla  trev  d1  d2   d0   wrp  php
# ~~~~~~~~~~~~~~~~~~~~~~~~~~~~~~~~~~~~~~~~~~~~~~~~~~~~~~~~~~~~~~~~~~
# { sinc 0.0015000 }
#
# type      = r          mod       = n          dres      = n         
# steps     = n          stepsize  = n          attn      = i         
# refofs    = n          wrap      = n          sfrq      = n         
# sucyc     = d          reps      = 2          header    = y         
# bscor     = n          pad1      = n          pad2      = n         
# bsim      = n          T1        = n          T2        = n         
# rdc       = n          dcyc      = n          sw        = 17361.111111
#
# RF Calibration Data :  ref_pwr   = 59         ref_pw90  = 5.62
# ~~~~~~~~~~~~~~~~~~~~~
###
# ------------------- Shape data ------------------
# pwtot      = 0.0015000 (total pw, s)
# power      = 16 (power level, dB)
# pwrf       = 4095 (fine power)
# B1max      = 0.3149 (B1max, kHz)
# B1rms      = 0.1904 (B1[RMS], kHz)
# nptot      = 200 (total number of steps)
# stepsize   = 7.50 (length of a single step, us)
# maxamp     = 923.9 (max amplitude)
# ------------------------------------------------- 
#      phase      amplitude   length     gate 
# ------------------------------------------------- 
        0.00      1023.00      0.0        0
       0.000        0.000      1.0        0
       0.000        8.379      1.0        1
       0.000       17.940      1.0        1
       0.000       27.681      1.0        1
       0.000       37.597      1.0        1
       0.000       47.684      1.0        1
       0.000       57.937      1.0        1
       0.000       68.353      1.0        1
       0.000       78.927      1.0        1
       0.000       89.654      1.0        1
       0.000      100.529      1.0        1
       0.000      111.547      1.0        1
       0.000      122.704      1.0        1
       0.000      133.994      1.0        1
       0.000      145.412      1.0        1
       0.000      156.953      1.0        1
       0.000      168.611      1.0        1
       0.000      180.380      1.0        1
       0.000      192.255      1.0        1
       0.000      204.230      1.0        1
       0.000      216.299      1.0        1
       0.000      228.456      1.0        1
       0.000      240.695      1.0        1
       0.000      253.011      1.0        1
       0.000      265.396      1.0        1
       0.000      277.844      1.0        1
       0.000      290.349      1.0        1
       0.000      302.905      1.0        1
       0.000      315.505      1.0        1
       0.000      328.142      1.0        1
       0.000      340.810      1.0        1
       0.000      353.502      1.0        1
       0.000      366.212      1.0        1
       0.000      378.933      1.0        1
       0.000      391.657      1.0        1
       0.000      404.378      1.0        1
       0.000      417.090      1.0        1
       0.000      429.785      1.0        1
       0.000      442.456      1.0        1
       0.000      455.097      1.0        1
       0.000      467.701      1.0        1
       0.000      480.260      1.0        1
       0.000      492.768      1.0        1
       0.000      505.218      1.0        1
       0.000      517.603      1.0        1
       0.000      529.916      1.0        1
       0.000      542.150      1.0        1
       0.000      554.299      1.0        1
       0.000      566.354      1.0        1
       0.000      578.311      1.0        1
       0.000      590.162      1.0        1
       0.000      601.900      1.0        1
       0.000      613.518      1.0        1
       0.000      625.010      1.0        1
       0.000      636.370      1.0        1
       0.000      647.591      1.0        1
       0.000      658.666      1.0        1
       0.000      669.590      1.0        1
       0.000      680.355      1.0        1
       0.000      690.956      1.0        1
       0.000      701.386      1.0        1
       0.000      711.640      1.0        1
       0.000      721.712      1.0        1
       0.000      731.595      1.0        1
       0.000      741.284      1.0        1
       0.000      750.774      1.0        1
       0.000      760.058      1.0        1
       0.000      769.132      1.0        1
       0.000      777.990      1.0        1
       0.000      786.626      1.0        1
       0.000      795.037      1.0        1
       0.000      803.216      1.0        1
       0.000      811.159      1.0        1
       0.000      818.862      1.0        1
       0.000      826.319      1.0        1
       0.000      833.527      1.0        1
       0.000      840.481      1.0        1
       0.000      847.177      1.0        1
       0.000      853.611      1.0        1
       0.000      859.780      1.0        1
       0.000      865.679      1.0        1
       0.000      871.305      1.0        1
       0.000      876.655      1.0        1
       0.000      881.726      1.0        1
       0.000      886.514      1.0        1
       0.000      891.017      1.0        1
       0.000      895.232      1.0        1
       0.000      899.156      1.0        1
       0.000      902.788      1.0        1
       0.000      906.125      1.0        1
       0.000      909.164      1.0        1
       0.000      911.905      1.0        1
       0.000      914.346      1.0        1
       0.000      916.485      1.0        1
       0.000      918.320      1.0        1
       0.000      919.851      1.0        1
       0.000      921.078      1.0        1
       0.000      921.998      1.0        1
       0.000      922.612      1.0        1
       0.000      922.919      2.0        1
       0.000      922.612      1.0        1
       0.000      921.998      1.0        1
       0.000      921.078      1.0        1
       0.000      919.851      1.0        1
       0.000      918.320      1.0        1
       0.000      916.485      1.0        1
       0.000      914.346      1.0        1
       0.000      911.905      1.0        1
       0.000      909.164      1.0        1
       0.000      906.125      1.0        1
       0.000      902.788      1.0        1
       0.000      899.156      1.0        1
       0.000      895.232      1.0        1
       0.000      891.017      1.0        1
       0.000      886.514      1.0        1
       0.000      881.726      1.0        1
       0.000      876.655      1.0        1
       0.000      871.305      1.0        1
       0.000      865.679      1.0        1
       0.000      859.780      1.0        1
       0.000      853.611      1.0        1
       0.000      847.177      1.0        1
       0.000      840.481      1.0        1
       0.000      833.527      1.0        1
       0.000      826.319      1.0        1
       0.000      818.862      1.0        1
       0.000      811.159      1.0        1
       0.000      803.216      1.0        1
       0.000      795.037      1.0        1
       0.000      786.626      1.0        1
       0.000      777.990      1.0        1
       0.000      769.132      1.0        1
       0.000      760.058      1.0        1
       0.000      750.774      1.0        1
       0.000      741.284      1.0        1
       0.000      731.595      1.0        1
       0.000      721.712      1.0        1
       0.000      711.640      1.0        1
       0.000      701.386      1.0        1
       0.000      690.956      1.0        1
       0.000      680.355      1.0        1
       0.000      669.590      1.0        1
       0.000      658.666      1.0        1
       0.000      647.591      1.0        1
       0.000      636.370      1.0        1
       0.000      625.010      1.0        1
       0.000      613.518      1.0        1
       0.000      601.900      1.0        1
       0.000      590.162      1.0        1
       0.000      578.311      1.0        1
       0.000      566.354      1.0        1
       0.000      554.299      1.0        1
       0.000      542.150      1.0        1
       0.000      529.916      1.0        1
       0.000      517.603      1.0        1
       0.000      505.218      1.0        1
       0.000      492.768      1.0        1
       0.000      480.260      1.0        1
       0.000      467.701      1.0        1
       0.000      455.097      1.0        1
       0.000      442.456      1.0        1
       0.000      429.785      1.0        1
       0.000      417.090      1.0        1
       0.000      404.378      1.0        1
       0.000      391.657      1.0        1
       0.000      378.933      1.0        1
       0.000      366.212      1.0        1
       0.000      353.502      1.0        1
       0.000      340.810      1.0        1
       0.000      328.142      1.0        1
       0.000      315.505      1.0        1
       0.000      302.905      1.0        1
       0.000      290.349      1.0        1
       0.000      277.844      1.0        1
       0.000      265.396      1.0        1
       0.000      253.011      1.0        1
       0.000      240.695      1.0        1
       0.000      228.456      1.0        1
       0.000      216.299      1.0        1
       0.000      204.230      1.0        1
       0.000      192.255      1.0        1
       0.000      180.380      1.0        1
       0.000      168.611      1.0        1
       0.000      156.953      1.0        1
       0.000      145.412      1.0        1
       0.000      133.994      1.0        1
       0.000      122.704      1.0        1
       0.000      111.547      1.0        1
       0.000      100.529      1.0        1
       0.000       89.654      1.0        1
       0.000       78.927      1.0        1
       0.000       68.353      1.0        1
       0.000       57.937      1.0        1
       0.000       47.684      1.0        1
       0.000       37.597      1.0        1
       0.000       27.681      1.0        1
       0.000       17.940      1.0        1
       0.000        8.379      1.0        1
       0.000        0.000      1.0        0
